# SAXS profile: number of points = 501, q_min = 0, q_max = 0.5, delta_q = 0.001
#    q    intensity    error
0.00000    3280251.50000000 492.03771973
0.00100    3280027.50000000 1771.21484375
0.00200    3279327.00000000 2508.68530273
0.00300    3278171.00000000 2950.35400391
0.00400    3276549.25000000 2948.89453125
0.00500    3274478.25000000 3831.13989258
0.00600    3271938.75000000 3435.53564453
0.00700    3268939.50000000 5491.81835938
0.00800    3265486.00000000 6171.76904297
0.00900    3261578.75000000 6849.31591797
0.01000    3257203.00000000 6986.70068359
0.01100    3252384.75000000 6439.72216797
0.01200    3247108.75000000 8231.42089844
0.01300    3241384.75000000 9529.67089844
0.01400    3235219.50000000 10190.94140625
0.01500    3228604.00000000 7748.64990234
0.01600    3221551.25000000 9857.94726562
0.01700    3214056.25000000 9545.74707031
0.01800    3206132.50000000 13706.21679688
0.01900    3197777.00000000 11511.99804688
0.02000    3188976.50000000 13058.85937500
0.02100    3179756.25000000 11542.51562500
0.02200    3170117.50000000 13124.28710938
0.02300    3160053.50000000 13651.43261719
0.02400    3149589.25000000 11810.95996094
0.02500    3138699.50000000 18361.39257812
0.02600    3127416.25000000 12666.03613281
0.02700    3115713.25000000 14394.59570312
0.02800    3103617.25000000 16200.88281250
0.02900    3091131.00000000 15301.09863281
0.03000    3078262.50000000 18608.09765625
0.03100    3065011.00000000 17654.46484375
0.03200    3051379.00000000 19635.62500000
0.03300    3037381.00000000 17039.70703125
0.03400    3023014.00000000 19044.98828125
0.03500    3008280.00000000 25991.53906250
0.03600    2993193.50000000 16612.22460938
0.03700    2977752.50000000 20367.82812500
0.03800    2961975.50000000 20793.07031250
0.03900    2945858.75000000 22977.69921875
0.04000    2929392.75000000 21618.91992188
0.04100    2912626.50000000 18349.54687500
0.04200    2895528.50000000 22411.39257812
0.04300    2878115.75000000 22794.67773438
0.04400    2860402.50000000 23169.26171875
0.04500    2842390.00000000 19612.49218750
0.04600    2824076.50000000 21900.71484375
0.04700    2805480.25000000 24239.34960938
0.04800    2786604.75000000 26626.00781250
0.04900    2767454.50000000 26982.68359375
0.05000    2748038.25000000 25226.99218750
0.05100    2728376.50000000 34050.14062500
0.05200    2708453.50000000 25838.64648438
0.05300    2688267.50000000 26129.96093750
0.05400    2667869.75000000 26411.91210938
0.05500    2647224.50000000 24460.35546875
0.05600    2626362.50000000 31437.56054688
0.05700    2605288.00000000 29465.80859375
0.05800    2584013.50000000 22868.51953125
0.05900    2562523.00000000 25368.97851562
0.06000    2540850.00000000 27898.53320312
0.06100    2518983.75000000 28111.86132812
0.06200    2496946.75000000 30674.99218750
0.06300    2474742.75000000 26133.28320312
0.06400    2452372.50000000 28692.75976562
0.06500    2429839.00000000 36083.11328125
0.06600    2407162.75000000 26611.18359375
0.06700    2384346.00000000 24320.33007812
0.06800    2361393.50000000 31772.55078125
0.06900    2338321.50000000 36828.56640625
0.07000    2315129.00000000 29587.34960938
0.07100    2291823.00000000 34652.36328125
0.07200    2268422.75000000 29807.07617188
0.07300    2244920.25000000 27410.47851562
0.07400    2221331.50000000 29987.97656250
0.07500    2197661.25000000 25053.33984375
0.07600    2173920.50000000 32641.41796875
0.07700    2150117.50000000 30187.65234375
0.07800    2126256.00000000 30235.36132812
0.07900    2102328.75000000 27750.74023438
0.08000    2078367.87500000 35353.03906250
0.08100    2054382.37500000 32849.57421875
0.08200    2030352.75000000 37916.83984375
0.08300    2006300.25000000 27807.32226562
0.08400    1982234.25000000 25273.48828125
0.08500    1958159.75000000 32838.33984375
0.08600    1934091.12500000 25239.89062500
0.08700    1910015.87500000 30254.65234375
0.08800    1885956.75000000 30213.02929688
0.08900    1861918.50000000 30163.08007812
0.09000    1837902.37500000 35122.31640625
0.09100    1813922.25000000 32541.76757812
0.09200    1789970.25000000 39952.14062500
0.09300    1766076.50000000 24901.67968750
0.09400    1742220.12500000 29791.96484375
0.09500    1718425.12500000 32168.91992188
0.09600    1694695.25000000 27123.59765625
0.09700    1671032.00000000 24564.17187500
0.09800    1647442.50000000 24464.52148438
0.09900    1623935.75000000 26794.94140625
0.10000    1600514.50000000 26672.57421875
0.10100    1577178.25000000 26543.91015625
0.10200    1553942.62500000 28810.09765625
0.10300    1530809.75000000 42985.14062500
0.10400    1507782.75000000 26122.33593750
0.10500    1484874.37500000 28331.40429688
0.10600    1462074.37500000 25812.92382812
0.10700    1439395.87500000 37309.14453125
0.10800    1416853.50000000 23165.55468750
0.10900    1394437.50000000 34512.32812500
0.11000    1372151.87500000 27415.59570312
0.11100    1350021.75000000 22680.36718750
0.11200    1328026.00000000 29263.05468750
0.11300    1306180.87500000 31269.97070312
0.11400    1284486.87500000 33236.10156250
0.11500    1262952.87500000 24172.91796875
0.11600    1241580.25000000 26147.68164062
0.11700    1220374.12500000 23760.68554688
0.11800    1199334.37500000 23548.93164062
0.11900    1178467.62500000 29697.38476562
0.12000    1157765.62500000 25216.13671875
0.12100    1137253.62500000 27055.26562500
0.12200    1116923.00000000 26789.40039062
0.12300    1096771.75000000 24479.94531250
0.12400    1076807.87500000 32304.23828125
0.12500    1057034.75000000 31964.73046875
0.12600    1037461.68750000 19763.64453125
0.12700    1018075.81250000 25411.17382812
0.12800    998882.06250000 28992.55273438
0.12900    979897.37500000 24840.40039062
0.13000    961115.87500000 22663.11328125
0.13100    942529.50000000 18662.08593750
0.13200    924154.75000000 22124.26367188
0.13300    905988.43750000 18210.36718750
0.13400    888027.18750000 19780.80664062
0.13500    870279.43750000 19529.07226562
0.13600    852741.93750000 29790.54101562
0.13700    835420.12500000 19022.51757812
0.13800    818310.37500000 18767.94921875
0.13900    801419.43750000 23561.73437500
0.14000    784742.81250000 18257.04101562
0.14100    768285.81250000 22910.28320312
0.14200    752046.50000000 24197.09765625
0.14300    736027.06250000 28616.73437500
0.14400    720222.87500000 17231.33398438
0.14500    704644.81250000 16974.89453125
0.14600    689283.56250000 19758.31445312
0.14700    674149.62500000 14966.12207031
0.14800    659227.56250000 16207.10937500
0.14900    644531.18750000 21752.92773438
0.15000    630055.06250000 15697.82226562
0.15100    615800.50000000 18252.32812500
0.15200    601767.62500000 16572.68164062
0.15300    587955.56250000 23089.01757812
0.15400    574358.25000000 17359.98046875
0.15500    560984.06250000 17065.13476562
0.15600    547828.87500000 14191.50683594
0.15700    534892.56250000 15212.34472656
0.15800    522170.78125000 16189.90625000
0.15900    509670.96875000 19571.36718750
0.16000    497383.71875000 16816.54492188
0.16100    485313.18750000 14151.73339844
0.16200    473454.65625000 15048.75585938
0.16300    461810.03125000 17040.79101562
0.16400    450376.43750000 14490.86230469
0.16500    439154.09375000 13121.92480469
0.16600    428143.15625000 17159.97851562
0.16700    417334.81250000 13671.88964844
0.16800    406732.43750000 14434.93554688
0.16900    396341.71875000 12128.05761719
0.17000    386150.12500000 12876.17578125
0.17100    376162.06250000 11645.97753906
0.17200    366373.21875000 12359.60058594
0.17300    356782.46875000 9312.02246094
0.17400    347390.68750000 10942.80761719
0.17500    338191.62500000 8928.25976562
0.17600    329184.21875000 8739.84179688
0.17700    320370.62500000 10264.67480469
0.17800    311747.03125000 9207.44824219
0.17900    303308.15625000 13921.84472656
0.18000    295058.00000000 13618.40234375
0.18100    286991.25000000 10185.32031250
0.18200    279101.81250000 14556.55566406
0.18300    271395.09375000 9737.65625000
0.18400    263863.78125000 10983.33105469
0.18500    256510.10937500 8587.95898438
0.18600    249328.01562500 8392.38085938
0.18700    242314.62500000 6833.27246094
0.18800    235470.81250000 9345.83691406
0.18900    228795.89062500 6520.68310547
0.19000    222279.60937500 7641.97363281
0.19100    215930.76562500 6218.80664062
0.19200    209736.62500000 6679.06298828
0.19300    203703.45312500 5927.77050781
0.19400    197822.42187500 6943.56738281
0.19500    192094.70312500 8471.37695312
0.19600    186516.68750000 8818.50976562
0.19700    181087.82812500 9143.12500000
0.19800    175803.21875000 5247.72656250
0.19900    170662.68750000 7167.83349609
0.20000    165661.26562500 8990.43750000
0.20100    160800.76562500 5359.48974609
0.20200    156073.51562500 5227.68261719
0.20300    151482.82812500 5098.91210938
0.20400    147022.03125000 6781.39160156
0.20500    142691.10937500 4850.07128906
0.20600    138485.06250000 5159.95361328
0.20700    134404.71875000 5032.11328125
0.20800    130446.02343750 5725.27587891
0.20900    126609.45312500 7178.75634766
0.21000    122887.39843750 4278.32470703
0.21100    119281.63281250 5689.73437500
0.21200    115789.04687500 4069.40625000
0.21300    112405.40625000 5051.49951172
0.21400    109131.50000000 3519.49121094
0.21500    105964.35156250 4463.21875000
0.21600    102900.07812500 4354.21679688
0.21700    99938.75000000  3267.99731445
0.21800    97075.35937500  3507.81835938
0.21900    94308.31250000  3112.17456055
0.22000    91637.45312500  3645.33813477
0.22100    89060.93750000  3262.30249023
0.22200    86574.56250000  2895.91943359
0.22300    84176.22656250  3676.81762695
0.22400    81864.36718750  2762.92236328
0.22500    79639.07812500  3239.71777344
0.22600    77494.43750000  3430.29150391
0.22700    75432.32031250  4643.61376953
0.22800    73447.57031250  3279.80151367
0.22900    71539.34375000  2961.72900391
0.23000    69706.14843750  2898.38159180
0.23100    67947.07812500  3073.92578125
0.23200    66256.68750000  4399.77539062
0.23300    64636.49609375  3403.11157227
0.23400    63084.70312500  2223.73583984
0.23500    61595.16406250  2834.60961914
0.23600    60171.78515625  2780.83935547
0.23700    58809.33593750  2729.34155273
0.23800    57507.64843750  2473.97900391
0.23900    56263.76171875  2430.59448242
0.24000    55076.14453125  2588.30346680
0.24100    53945.57812500  2154.04711914
0.24200    52867.66015625  3468.64746094
0.24300    51840.94921875  2087.11669922
0.24400    50864.91406250  2617.00000000
0.24500    49937.77343750  1842.70385742
0.24600    49058.01171875  1817.59936523
0.24700    48223.94531250  2511.50317383
0.24800    47434.59375000  2303.18676758
0.24900    46686.60546875  2626.12158203
0.25000    45981.22265625  2250.55102539
0.25100    45315.02343750  2740.65283203
0.25200    44690.03906250  2204.78320312
0.25300    44100.72656250  2352.33300781
0.25400    43547.41015625  2165.39501953
0.25500    43028.85937500  1817.53918457
0.25600    42545.06250000  2132.14599609
0.25700    42092.21875000  1791.86572266
0.25800    41671.77343750  2266.52783203
0.25900    41280.79296875  1770.94604492
0.26000    40919.38671875  1601.99414062
0.26100    40583.87109375  1913.93542480
0.26200    40277.69140625  2383.43261719
0.26300    39994.48046875  2850.80664062
0.26400    39737.00000000  1737.50036621
0.26500    39503.30859375  2364.27319336
0.26600    39291.47656250  2045.71069336
0.26700    39102.41796875  2043.49255371
0.26800    38933.70312500  1728.07250977
0.26900    38783.57421875  1884.88183594
0.27000    38653.60937500  2356.90380859
0.27100    38541.08203125  1572.47631836
0.27200    38447.16015625  1574.41125488
0.27300    38368.11328125  1892.31530762
0.27400    38302.58593750  1895.97814941
0.27500    38254.76953125  2692.37084961
0.27600    38219.02343750  2064.40063477
0.27700    38197.74609375  2389.26904297
0.27800    38188.26171875  2237.45043945
0.27900    38190.46093750  1764.39941406
0.28000    38203.94140625  1771.32580566
0.28100    38227.73046875  1778.73645020
0.28200    38261.30468750  2761.12719727
0.28300    38304.52734375  1631.77294922
0.28400    38355.25390625  2131.59326172
0.28500    38414.83593750  2307.19531250
0.28600    38481.07031250  2319.25415039
0.28700    38553.94921875  2165.18969727
0.28800    38633.53906250  3014.57519531
0.28900    38719.44531250  2189.58471680
0.29000    38809.29296875  2371.63598633
0.29100    38905.39843750  2385.67919922
0.29200    39004.94140625  2057.12084961
0.29300    39108.82031250  2069.63891602
0.29400    39215.17187500  1908.79846191
0.29500    39325.49609375  2444.47290039
0.29600    39438.09765625  1932.66394043
0.29700    39551.68359375  2121.55249023
0.29800    39668.30859375  1957.03601074
0.29900    39786.65625000  2148.47973633
0.30000    39904.92968750  2162.04907227
0.30100    40024.92187500  1994.44201660
0.30200    40144.29296875  2007.01403809
0.30300    40264.24218750  1836.04943848
0.30400    40384.61718750  2032.35595703
0.30500    40503.23437500  1859.09851074
0.30600    40621.15234375  2057.66455078
0.30700    40739.12500000  2070.36230469
0.30800    40854.64062500  2651.05786133
0.30900    40969.22656250  3048.11059570
0.31000    41081.87890625  1916.46972656
0.31100    41191.92968750  1927.78247070
0.31200    41299.81250000  2132.92895508
0.31300    41405.82812500  2145.23608398
0.31400    41509.23046875  2353.57348633
0.31500    41609.05468750  3155.63085938
0.31600    41706.16406250  2578.06665039
0.31700    41800.39062500  2193.26660156
0.31800    41890.50781250  2004.46093750
0.31900    41978.11718750  2417.93969727
0.32000    42061.53906250  3037.89477539
0.32100    42141.39062500  3053.14379883
0.32200    42217.48828125  2863.61254883
0.32300    42288.44140625  3699.39306641
0.32400    42356.10937500  2684.31835938
0.32500    42419.35546875  3318.89062500
0.32600    42477.97265625  2291.89916992
0.32700    42532.41406250  2301.85449219
0.32800    42583.14453125  2942.06958008
0.32900    42627.85546875  2743.10278320
0.33000    42669.34765625  2330.38647461
0.33100    42704.25000000  2126.67187500
0.33200    42736.16406250  2348.13867188
0.33300    42762.62890625  2785.13012695
0.33400    42784.48437500  3439.87280273
0.33500    42800.55859375  2588.57788086
0.33600    42812.31250000  3462.66015625
0.33700    42818.37109375  2605.06982422
0.33800    42820.39843750  3048.38452148
0.33900    42816.41796875  2620.36499023
0.34000    42807.61718750  2189.60961914
0.34100    42793.75000000  2195.31958008
0.34200    42775.80859375  2200.81542969
0.34300    42751.30078125  2426.56396484
0.34400    42723.32812500  2432.02563477
0.34500    42689.50000000  2658.70239258
0.34600    42651.31250000  2886.00122070
0.34700    42607.03515625  3113.72216797
0.34800    42558.01562500  3787.45092773
0.34900    42504.39062500  3347.22094727
0.35000    42445.88281250  2458.25341797
0.35100    42383.00000000  2237.82250977
0.35200    42313.70703125  2688.61303711
0.35300    42240.46875000  2915.85961914
0.35400    42162.23437500  2918.68066406
0.35500    42079.88671875  2921.18579102
0.35600    41991.72656250  2473.52270508
0.35700    41899.65625000  2250.01171875
0.35800    41802.80468750  2476.18920898
0.35900    41701.63281250  2251.88842773
0.36000    41596.05078125  4054.36718750
0.36100    41485.92187500  2703.22290039
0.36200    41372.26562500  2703.26391602
0.36300    41253.36718750  2252.43383789
0.36400    41129.94921875  2702.23779297
0.36500    41002.48828125  2701.24389648
0.36600    40871.75781250  2924.98754883
0.36700    40736.61718750  2473.52758789
0.36800    40598.38281250  2696.54492188
0.36900    40456.16796875  2694.38085938
0.37000    40309.04687500  2467.51831055
0.37100    40158.33984375  3361.25317383
0.37200    40005.32031250  3357.44653320
0.37300    39847.87890625  2459.01269531
0.37400    39687.80468750  2678.92700195
0.37500    39524.41406250  2897.93017578
0.37600    39357.41406250  3338.49267578
0.37700    39187.34765625  2444.11499023
0.37800    39014.71875000  2217.98681641
0.37900    38839.59375000  3763.55664062
0.38000    38660.73828125  2872.29980469
0.38100    38479.77734375  3086.84790039
0.38200    38295.70703125  3300.13281250
0.38300    38109.40234375  2414.61181641
0.38400    37921.13281250  2846.92895508
0.38500    37729.75781250  2621.46362305
0.38600    37537.52734375  2614.86425781
0.38700    37341.55468750  2390.60644531
0.38800    37144.05078125  2600.82641602
0.38900    36945.00781250  2377.41137695
0.39000    36744.55468750  2586.08178711
0.39100    36542.23046875  2363.55175781
0.39200    36338.74609375  2784.81982422
0.39300    36132.49218750  2562.51635742
0.39400    35926.94531250  2128.67163086
0.39500    35718.57812500  2758.18872070
0.39600    35509.31640625  2326.03784180
0.39700    35299.07421875  2950.29663086
0.39800    35088.51171875  2940.06665039
0.39900    34876.39062500  2720.35864258
0.40000    34664.28125000  2085.05664062
0.40100    34450.29296875  2285.08813477
0.40200    34237.50000000  3104.48535156
0.40300    34022.84765625  3505.03393555
0.40400    33808.48046875  3080.79785156
0.40500    33593.78906250  2659.62036133
0.40600    33379.91406250  2852.98144531
0.40700    33165.03125000  2638.60986328
0.40800    32950.36718750  2223.65576172
0.40900    32735.82812500  2617.22949219
0.41000    32522.45703125  2005.00964355
0.41100    32308.72656250  2396.01513672
0.41200    32095.34765625  2187.13769531
0.41300    31883.18359375  2771.92407227
0.41400    31671.39453125  2365.85327148
0.41500    31460.35937500  2355.75195312
0.41600    31249.70507812  1954.66906738
0.41700    31040.60156250  2530.11962891
0.41800    30833.26367188  2519.23193359
0.41900    30624.78906250  2122.29809570
0.42000    30419.33593750  2113.07934570
0.42100    30214.92382812  2677.64672852
0.42200    30012.05859375  2285.11816406
0.42300    29809.95703125  2085.50463867
0.42400    29609.46484375  1887.60351562
0.42500    29411.00781250  2255.23608398
0.42600    29213.46679688  2058.23486328
0.42700    29018.49023438  3167.07812500
0.42800    28824.86132812  2040.36791992
0.42900    28633.72460938  2031.56286621
0.43000    28444.11523438  2206.69458008
0.43100    28255.62304688  1830.96447754
0.43200    28070.43554688  2370.12719727
0.43300    27886.63476562  2360.04614258
0.43400    27705.55468750  2350.12377930
0.43500    27526.14453125  2340.27294922
0.43600    27350.57812500  2509.96264648
0.43700    27175.51953125  1963.97485352
0.43800    27002.93945312  2133.77246094
0.43900    26833.88671875  2302.34765625
0.44000    26666.65234375  2293.19897461
0.44100    26502.22656250  2108.51733398
0.44200    26340.63867188  1750.33557129
0.44300    26180.82617188  2441.10034180
0.44400    26024.64843750  1910.85998535
0.44500    25869.51171875  1903.73742676
0.44600    25718.16992188  1896.84362793
0.44700    25569.96875000  2405.62280273
0.44800    25423.95312500  1883.53356934
0.44900    25281.00976562  2218.40869141
0.45000    25141.53125000  1700.82470703
0.45100    25003.38085938  3220.93579102
0.45200    24869.12695312  2027.82873535
0.45300    24737.36328125  2526.92163086
0.45400    24608.75195312  1679.54736328
0.45500    24482.88671875  1842.09240723
0.45600    24359.89062500  2170.83178711
0.45700    24240.04687500  2164.87866211
0.45800    24122.70117188  1826.93286133
0.45900    24008.15234375  2319.18774414
0.46000    23897.86328125  2148.29833984
0.46100    23788.62695312  1813.40710449
0.46200    23684.11328125  1809.34790039
0.46300    23581.37695312  2297.76953125
0.46400    23481.74414062  2620.56274414
0.46500    23385.30273438  1634.63281250
0.46600    23291.77539062  2121.06567383
0.46700    23200.29882812  2117.25927734
0.46800    23113.29296875  2113.82641602
0.46900    23027.58789062  1785.78942871
0.47000    22945.36328125  2107.41699219
0.47100    22866.12695312  1780.81408691
0.47200    22789.72656250  2748.78295898
0.47300    22716.29687500  1776.64160156
0.47400    22644.61914062  2097.45800781
0.47500    22576.54687500  2256.75170898
0.47600    22511.70117188  1771.78344727
0.47700    22447.79101562  1770.45739746
0.47800    22387.91406250  1608.57165527
0.47900    22330.69921875  1607.81042480
0.48000    22275.20507812  3053.59667969
0.48100    22223.79296875  1767.45837402
0.48200    22172.75781250  2248.98291016
0.48300    22125.20507812  1927.54785156
0.48400    22080.47070312  2891.43774414
0.48500    22037.71875000  1767.20471191
0.48600    21998.04296875  1606.95715332
0.48700    21959.99414062  1768.21875000
0.48800    21924.00000000  1929.75061035
0.48900    21890.44140625  2252.52661133
0.49000    21859.28515625  1770.93005371
0.49100    21830.60156250  1933.31823730
0.49200    21803.56640625  2096.08593750
0.49300    21778.66992188  2743.45922852
0.49400    21755.79492188  2099.97827148
0.49500    21734.68945312  2102.17919922
0.49600    21715.99218750  2104.60546875
0.49700    21698.88085938  1945.08776855
0.49800    21683.80273438  2109.94262695
0.49900    21670.00585938  1625.25048828
0.50000    21658.39843750  2604.20581055
